
 Power Spectrum (Density of State) (cm)
    freq(cm-1)  PWR_hs[G001]   PWR_s[G001]  PWR_fr[G001]   PWR_s[G001]  PWRcmt[G001]  PWRcmo[G001]  PWRimv[G001]  PWRcmr[G001]  PWRtot[G001]
        0.0000        7.3740        0.0000        0.4626        0.0000        7.3740        0.4626        0.0569        0.2999       11.4914
       55.5940        2.9816        3.8531        0.4205        0.0930        6.8348        0.5134        0.0694        0.3695       10.7886
      111.1880        1.0699        3.7561        0.3303        0.2648        4.8260        0.5951        0.0988        0.4968        7.9724
      166.7820        0.5172        3.3516        0.2433        0.5556        3.8688        0.7989        0.1348        0.6900        6.8298
      222.3761        0.3001        2.9084        0.1777        0.9609        3.2085        1.1387        0.1751        1.0359        6.3611
      277.9701        0.1949        1.8826        0.1320        1.3923        2.0775        1.5243        0.2157        1.4241        5.2514
      333.5641        0.1365        0.9474        0.1004        1.9890        1.0839        2.0894        0.2517        2.0285        4.6722
      389.1581        0.1008        0.4835        0.0783        2.5691        0.5842        2.6474        0.2829        2.6306        4.8290
      444.7521        0.0774        0.2819        0.0624        2.9999        0.3592        3.0623        0.3160        3.0495        5.1217
      500.3461        0.0613        0.1829        0.0508        2.8755        0.2441        2.9262        0.3209        2.9384        4.7823
      555.9402        0.0497        0.1208        0.0420        2.5558        0.1706        2.5978        0.3483        2.6273        4.2045
      611.5342        0.0411        0.0805        0.0353        2.2064        0.1216        2.2417        0.3955        2.2679        3.5910
      667.1282        0.0346        0.0540        0.0300        1.9078        0.0886        1.9378        0.4421        1.9571        3.0742
      722.7222        0.0295        0.0353        0.0258        1.5187        0.0648        1.5445        0.5463        1.5846        2.4787
      778.3162        0.0255        0.0258        0.0224        1.2566        0.0513        1.2790        0.6340        1.3206        2.0614
      833.9102        0.0222        0.0157        0.0197        1.0205        0.0379        1.0402        0.7848        1.0905        1.6954
      889.5043        0.0195        0.0092        0.0174        0.5345        0.0287        0.5519        0.8799        0.6078        0.9559
      945.0983        0.0173        0.0047        0.0154        0.2522        0.0220        0.2676        1.0342        0.3355        0.5363
     1000.6923        0.0154        0.0028        0.0138        0.1340        0.0182        0.1478        1.1127        0.2076        0.3384
     1056.2863        0.0138        0.0015        0.0124        0.0755        0.0154        0.0879        1.2848        0.1430        0.2371
     1111.8803        0.0125        0.0012        0.0113        0.0489        0.0137        0.0602        1.3711        0.1055        0.1784
     1167.4743        0.0113        0.0004        0.0102        0.0327        0.0118        0.0429        1.5037        0.0828        0.1413
     1223.0683        0.0103        0.0005        0.0093        0.0228        0.0109        0.0322        1.5667        0.0665        0.1155
     1278.6624        0.0095        0.0004        0.0086        0.0180        0.0099        0.0266        1.5288        0.0555        0.0976
     1334.2564        0.0087        0.0000        0.0079        0.0125        0.0087        0.0204        1.6376        0.0466        0.0825
     1389.8504        0.0080        0.0002        0.0073        0.0093        0.0082        0.0166        1.5976        0.0378        0.0685
     1445.4444        0.0074        0.0003        0.0067        0.0073        0.0077        0.0140        1.4708        0.0318        0.0589
     1501.0384        0.0068        0.0000        0.0062        0.0055        0.0068        0.0118        1.3615        0.0255        0.0481
     1556.6324        0.0064        0.0001        0.0058        0.0044        0.0065        0.0102        1.2073        0.0207        0.0405
     1612.2265        0.0059        0.0002        0.0054        0.0038        0.0061        0.0093        1.0136        0.0170        0.0345
     1667.8205        0.0055        0.0000        0.0051        0.0029        0.0055        0.0080        0.9072        0.0142        0.0295
     1723.4145        0.0052        0.0001        0.0048        0.0024        0.0053        0.0072        0.6790        0.0116        0.0252
     1779.0085        0.0049        0.0002        0.0045        0.0023        0.0051        0.0068        0.4893        0.0096        0.0220
     1834.6025        0.0046        0.0000        0.0042        0.0018        0.0046        0.0060        0.3608        0.0081        0.0190
     1890.1965        0.0043        0.0002        0.0040        0.0016        0.0046        0.0055        0.2928        0.0070        0.0173
     1945.7906        0.0041        0.0003        0.0037        0.0016        0.0044        0.0053        0.2150        0.0063        0.0160
     2001.3846        0.0039        0.0001        0.0035        0.0013        0.0040        0.0048        0.1658        0.0057        0.0144
     2056.9786        0.0037        0.0003        0.0033        0.0012        0.0039        0.0045        0.1410        0.0051        0.0136
     2112.5726        0.0035        0.0003        0.0032        0.0013        0.0038        0.0044        0.1186        0.0049        0.0131
     2168.1666        0.0033        0.0002        0.0030        0.0010        0.0035        0.0041        0.0977        0.0045        0.0120
     2223.7606        0.0031        0.0003        0.0029        0.0010        0.0035        0.0039        0.0831        0.0042        0.0115
     2279.3547        0.0030        0.0004        0.0027        0.0011        0.0034        0.0038        0.0659        0.0040        0.0111
     2334.9487        0.0028        0.0003        0.0026        0.0009        0.0031        0.0035        0.0531        0.0037        0.0102
     2390.5427        0.0027        0.0004        0.0025        0.0009        0.0031        0.0034        0.0443        0.0035        0.0099
     2446.1367        0.0026        0.0004        0.0024        0.0009        0.0030        0.0033        0.0363        0.0034        0.0097
     2501.7307        0.0025        0.0004        0.0023        0.0008        0.0028        0.0031        0.0297        0.0032        0.0091
     2557.3247        0.0024        0.0005        0.0022        0.0009        0.0028        0.0030        0.0254        0.0031        0.0089
     2612.9187        0.0023        0.0005        0.0021        0.0009        0.0028        0.0030        0.0200        0.0030        0.0087
     2668.5128        0.0022        0.0004        0.0020        0.0008        0.0026        0.0028        0.0176        0.0029        0.0082
     2724.1068        0.0021        0.0005        0.0019        0.0008        0.0026        0.0027        0.0145        0.0028        0.0081
     2779.7008        0.0020        0.0006        0.0018        0.0009        0.0026        0.0027        0.0131        0.0027        0.0079
     2835.2948        0.0019        0.0005        0.0018        0.0008        0.0024        0.0025        0.0107        0.0026        0.0075
     2890.8888        0.0019        0.0006        0.0017        0.0008        0.0024        0.0025        0.0097        0.0025        0.0074
     2946.4828        0.0018        0.0006        0.0016        0.0009        0.0024        0.0025        0.0085        0.0025        0.0073
     3002.0769        0.0017        0.0005        0.0016        0.0008        0.0022        0.0024        0.0076        0.0024        0.0070
     3057.6709        0.0017        0.0006        0.0015        0.0008        0.0023        0.0023        0.0068        0.0024        0.0070
     3113.2649        0.0016        0.0006        0.0015        0.0009        0.0022        0.0023        0.0064        0.0023        0.0069
     3168.8589        0.0015        0.0006        0.0014        0.0008        0.0021        0.0022        0.0060        0.0023        0.0066
     3224.4529        0.0015        0.0007        0.0014        0.0008        0.0022        0.0022        0.0053        0.0022        0.0066
     3280.0469        0.0014        0.0007        0.0013        0.0009        0.0021        0.0022        0.0051        0.0022        0.0065
     3335.6410        0.0014        0.0006        0.0013        0.0008        0.0020        0.0021        0.0048        0.0021        0.0062
     3391.2350        0.0013        0.0007        0.0012        0.0009        0.0021        0.0021        0.0045        0.0021        0.0063
     3446.8290        0.0013        0.0008        0.0012        0.0009        0.0021        0.0021        0.0044        0.0021        0.0062
     3502.4230        0.0013        0.0007        0.0012        0.0009        0.0020        0.0020        0.0040        0.0020        0.0060
     3558.0170        0.0012        0.0008        0.0011        0.0009        0.0020        0.0020        0.0041        0.0020        0.0061
     3613.6110        0.0012        0.0008        0.0011        0.0009        0.0020        0.0020        0.0040        0.0020        0.0060
     3669.2050        0.0011        0.0008        0.0011        0.0009        0.0019        0.0019        0.0037        0.0020        0.0058
     3724.7991        0.0011        0.0008        0.0010        0.0009        0.0020        0.0020        0.0038        0.0020        0.0059
     3780.3931        0.0011        0.0009        0.0010        0.0010        0.0019        0.0020        0.0035        0.0020        0.0059
     3835.9871        0.0011        0.0008        0.0010        0.0009        0.0019        0.0019        0.0035        0.0019        0.0057
     3891.5811        0.0010        0.0009        0.0009        0.0010        0.0019        0.0019        0.0036        0.0019        0.0058
     3947.1751        0.0010        0.0009        0.0009        0.0010        0.0019        0.0019        0.0036        0.0019        0.0058
     4002.7691        0.0010        0.0009        0.0009        0.0010        0.0018        0.0019        0.0035        0.0019        0.0056
     4058.3632        0.0009        0.0010        0.0009        0.0011        0.0019        0.0019        0.0035        0.0019        0.0057
     4113.9572        0.0009        0.0010        0.0008        0.0011        0.0019        0.0019        0.0035        0.0019        0.0057
